DATATYPE	 IR Spectrum
XYUNITS	 Wavenumber;Absorbance
DECIMALSYMBOL	 .
650.4205	 0.1278
652.2841	 0.1237
654.1478	 0.1206
656.0115	 0.1223
657.8751	 0.1217
659.7388	 0.1196
661.6025	 0.1173
663.4661	 0.1175
665.3298	 0.1243
667.1935	 0.1260
669.0571	 0.1151
670.9208	 0.1144
672.7845	 0.1180
674.6481	 0.1156
676.5118	 0.1103
678.3755	 0.1109
680.2392	 0.1128
682.1028	 0.1107
683.9665	 0.1082
685.8302	 0.1079
687.6938	 0.1090
689.5575	 0.1091
691.4212	 0.1092
693.2848	 0.1111
695.1485	 0.1122
697.0122	 0.1114
698.8758	 0.1093
700.7395	 0.1082
702.6032	 0.1099
704.4669	 0.1109
706.3305	 0.1099
708.1942	 0.1105
710.0579	 0.1107
711.9215	 0.1106
713.7852	 0.1130
715.6489	 0.1161
717.5125	 0.1179
719.3762	 0.1181
721.2399	 0.1162
723.1035	 0.1155
724.9672	 0.1162
726.8309	 0.1149
728.6945	 0.1128
730.5582	 0.1118
732.4219	 0.1109
734.2856	 0.1095
736.1492	 0.1074
738.0129	 0.1059
739.8766	 0.1056
741.7402	 0.1048
743.6039	 0.1042
745.4676	 0.1042
747.3312	 0.1042
749.1949	 0.1041
751.0586	 0.1046
752.9222	 0.1049
754.7859	 0.1048
756.6496	 0.1048
758.5132	 0.1053
760.3769	 0.1060
762.2406	 0.1056
764.1043	 0.1047
765.9679	 0.1043
767.8316	 0.1050
769.6953	 0.1054
771.5589	 0.1054
773.4226	 0.1045
775.2863	 0.1033
777.1499	 0.1038
779.0136	 0.1045
780.8773	 0.1031
782.7409	 0.1011
784.6046	 0.0992
786.4683	 0.0974
788.3320	 0.0958
790.1956	 0.0948
792.0593	 0.0949
793.9230	 0.0953
795.7866	 0.0952
797.6503	 0.0938
799.5140	 0.0929
801.3776	 0.0931
803.2413	 0.0925
805.1050	 0.0912
806.9686	 0.0912
808.8323	 0.0918
810.6960	 0.0915
812.5596	 0.0914
814.4233	 0.0911
816.2870	 0.0905
818.1507	 0.0910
820.0143	 0.0913
821.8780	 0.0908
823.7417	 0.0908
825.6053	 0.0912
827.4690	 0.0913
829.3327	 0.0914
831.1963	 0.0914
833.0600	 0.0922
834.9237	 0.0929
836.7873	 0.0922
838.6510	 0.0918
840.5147	 0.0923
842.3784	 0.0929
844.2420	 0.0931
846.1057	 0.0927
847.9694	 0.0922
849.8330	 0.0923
851.6967	 0.0931
853.5604	 0.0938
855.4240	 0.0942
857.2877	 0.0940
859.1514	 0.0944
861.0150	 0.0955
862.8787	 0.0959
864.7424	 0.0960
866.6060	 0.0963
868.4697	 0.0966
870.3334	 0.0968
872.1971	 0.0971
874.0607	 0.0976
875.9244	 0.0982
877.7881	 0.0986
879.6517	 0.0989
881.5154	 0.0996
883.3791	 0.1000
885.2427	 0.0996
887.1064	 0.1000
888.9701	 0.1008
890.8337	 0.1013
892.6974	 0.1017
894.5611	 0.1019
896.4247	 0.1019
898.2884	 0.1021
900.1521	 0.1023
902.0158	 0.1024
903.8794	 0.1026
905.7431	 0.1030
907.6068	 0.1032
909.4704	 0.1038
911.3341	 0.1045
913.1978	 0.1050
915.0614	 0.1057
916.9251	 0.1066
918.7888	 0.1077
920.6524	 0.1088
922.5161	 0.1095
924.3798	 0.1101
926.2435	 0.1105
928.1071	 0.1107
929.9708	 0.1108
931.8345	 0.1106
933.6981	 0.1104
935.5618	 0.1102
937.4255	 0.1097
939.2891	 0.1095
941.1528	 0.1097
943.0165	 0.1100
944.8801	 0.1101
946.7438	 0.1099
948.6075	 0.1096
950.4711	 0.1087
952.3348	 0.1077
954.1985	 0.1074
956.0622	 0.1073
957.9258	 0.1071
959.7895	 0.1074
961.6532	 0.1079
963.5168	 0.1083
965.3805	 0.1088
967.2442	 0.1094
969.1078	 0.1101
970.9715	 0.1108
972.8352	 0.1115
974.6988	 0.1121
976.5625	 0.1129
978.4262	 0.1137
980.2899	 0.1146
982.1535	 0.1156
984.0172	 0.1165
985.8809	 0.1175
987.7445	 0.1186
989.6082	 0.1199
991.4719	 0.1210
993.3355	 0.1216
995.1992	 0.1223
997.0629	 0.1228
998.9265	 0.1230
1000.7902	 0.1230
1002.6539	 0.1225
1004.5175	 0.1219
1006.3812	 0.1216
1008.2449	 0.1213
1010.1086	 0.1212
1011.9722	 0.1211
1013.8359	 0.1211
1015.6996	 0.1212
1017.5632	 0.1217
1019.4269	 0.1220
1021.2906	 0.1221
1023.1542	 0.1226
1025.0179	 0.1231
1026.8816	 0.1233
1028.7452	 0.1234
1030.6089	 0.1236
1032.4726	 0.1235
1034.3362	 0.1231
1036.1999	 0.1223
1038.0636	 0.1215
1039.9273	 0.1210
1041.7909	 0.1206
1043.6546	 0.1201
1045.5183	 0.1196
1047.3819	 0.1195
1049.2456	 0.1194
1051.1093	 0.1192
1052.9729	 0.1194
1054.8366	 0.1197
1056.7003	 0.1199
1058.5639	 0.1203
1060.4276	 0.1205
1062.2913	 0.1203
1064.1550	 0.1202
1066.0186	 0.1202
1067.8823	 0.1200
1069.7460	 0.1196
1071.6096	 0.1197
1073.4733	 0.1198
1075.3370	 0.1197
1077.2006	 0.1199
1079.0643	 0.1205
1080.9280	 0.1212
1082.7916	 0.1215
1084.6553	 0.1217
1086.5190	 0.1222
1088.3826	 0.1223
1090.2463	 0.1221
1092.1100	 0.1221
1093.9737	 0.1222
1095.8373	 0.1224
1097.7010	 0.1223
1099.5647	 0.1219
1101.4283	 0.1215
1103.2920	 0.1214
1105.1557	 0.1215
1107.0193	 0.1215
1108.8830	 0.1214
1110.7467	 0.1212
1112.6103	 0.1208
1114.4740	 0.1202
1116.3377	 0.1194
1118.2014	 0.1183
1120.0650	 0.1176
1121.9287	 0.1172
1123.7924	 0.1170
1125.6560	 0.1172
1127.5197	 0.1178
1129.3834	 0.1188
1131.2470	 0.1199
1133.1107	 0.1211
1134.9744	 0.1222
1136.8380	 0.1229
1138.7017	 0.1233
1140.5654	 0.1238
1142.4290	 0.1242
1144.2927	 0.1245
1146.1564	 0.1248
1148.0201	 0.1252
1149.8837	 0.1257
1151.7474	 0.1262
1153.6111	 0.1264
1155.4747	 0.1267
1157.3384	 0.1269
1159.2021	 0.1272
1161.0657	 0.1275
1162.9294	 0.1274
1164.7931	 0.1272
1166.6567	 0.1267
1168.5204	 0.1260
1170.3841	 0.1253
1172.2477	 0.1248
1174.1114	 0.1241
1175.9751	 0.1229
1177.8388	 0.1217
1179.7024	 0.1204
1181.5661	 0.1193
1183.4298	 0.1184
1185.2934	 0.1175
1187.1571	 0.1167
1189.0208	 0.1159
1190.8844	 0.1152
1192.7481	 0.1144
1194.6118	 0.1136
1196.4754	 0.1129
1198.3391	 0.1121
1200.2028	 0.1111
1202.0665	 0.1103
1203.9301	 0.1097
1205.7938	 0.1092
1207.6575	 0.1089
1209.5211	 0.1086
1211.3848	 0.1087
1213.2485	 0.1089
1215.1121	 0.1088
1216.9758	 0.1090
1218.8395	 0.1095
1220.7031	 0.1098
1222.5668	 0.1100
1224.4305	 0.1105
1226.2941	 0.1107
1228.1578	 0.1111
1230.0215	 0.1116
1231.8852	 0.1117
1233.7488	 0.1116
1235.6125	 0.1111
1237.4762	 0.1104
1239.3398	 0.1099
1241.2035	 0.1092
1243.0672	 0.1090
1244.9308	 0.1091
1246.7945	 0.1089
1248.6582	 0.1084
1250.5218	 0.1076
1252.3855	 0.1063
1254.2492	 0.1046
1256.1129	 0.1030
1257.9765	 0.1012
1259.8402	 0.0993
1261.7039	 0.0972
1263.5675	 0.0950
1265.4312	 0.0928
1267.2949	 0.0909
1269.1585	 0.0892
1271.0222	 0.0875
1272.8859	 0.0859
1274.7495	 0.0844
1276.6132	 0.0832
1278.4769	 0.0824
1280.3405	 0.0815
1282.2042	 0.0807
1284.0679	 0.0800
1285.9316	 0.0795
1287.7952	 0.0791
1289.6589	 0.0782
1291.5226	 0.0772
1293.3862	 0.0761
1295.2499	 0.0747
1297.1136	 0.0731
1298.9772	 0.0719
1300.8409	 0.0706
1302.7046	 0.0694
1304.5682	 0.0685
1306.4319	 0.0676
1308.2956	 0.0668
1310.1592	 0.0662
1312.0229	 0.0660
1313.8866	 0.0656
1315.7503	 0.0652
1317.6139	 0.0648
1319.4776	 0.0643
1321.3413	 0.0632
1323.2049	 0.0623
1325.0686	 0.0618
1326.9323	 0.0614
1328.7959	 0.0609
1330.6596	 0.0606
1332.5233	 0.0604
1334.3869	 0.0607
1336.2506	 0.0616
1338.1143	 0.0624
1339.9780	 0.0623
1341.8416	 0.0618
1343.7053	 0.0616
1345.5690	 0.0622
1347.4326	 0.0625
1349.2963	 0.0630
1351.1600	 0.0637
1353.0236	 0.0643
1354.8873	 0.0644
1356.7510	 0.0645
1358.6146	 0.0654
1360.4783	 0.0667
1362.3420	 0.0669
1364.2056	 0.0666
1366.0693	 0.0665
1367.9330	 0.0668
1369.7967	 0.0672
1371.6603	 0.0683
1373.5240	 0.0688
1375.3877	 0.0678
1377.2513	 0.0670
1379.1150	 0.0665
1380.9787	 0.0655
1382.8423	 0.0650
1384.7060	 0.0657
1386.5697	 0.0655
1388.4333	 0.0632
1390.2970	 0.0614
1392.1607	 0.0621
1394.0244	 0.0631
1395.8880	 0.0627
1397.7517	 0.0618
1399.6154	 0.0609
1401.4790	 0.0600
1403.3427	 0.0602
1405.2064	 0.0602
1407.0700	 0.0596
1408.9337	 0.0599
1410.7974	 0.0602
1412.6610	 0.0605
1414.5247	 0.0608
1416.3884	 0.0626
1418.2520	 0.0626
1420.1157	 0.0592
1421.9794	 0.0566
1423.8431	 0.0558
1425.7067	 0.0550
1427.5704	 0.0547
1429.4341	 0.0553
1431.2977	 0.0550
1433.1614	 0.0559
1435.0251	 0.0577
1436.8887	 0.0566
1438.7524	 0.0547
1440.6161	 0.0544
1442.4797	 0.0552
1444.3434	 0.0560
1446.2071	 0.0573
1448.0707	 0.0573
1449.9344	 0.0568
1451.7981	 0.0573
1453.6618	 0.0608
1455.5254	 0.0643
1457.3891	 0.0635
1459.2528	 0.0586
1461.1164	 0.0579
1462.9801	 0.0595
1464.8438	 0.0585
1466.7074	 0.0547
1468.5711	 0.0525
1470.4348	 0.0520
1472.2984	 0.0498
1474.1621	 0.0447
1476.0258	 0.0399
1477.8895	 0.0367
1479.7531	 0.0340
1481.6168	 0.0323
1483.4805	 0.0306
1485.3441	 0.0302
1487.2078	 0.0316
1489.0715	 0.0318
1490.9351	 0.0302
1492.7988	 0.0282
1494.6625	 0.0282
1496.5261	 0.0300
1498.3898	 0.0294
1500.2535	 0.0283
1502.1171	 0.0284
1503.9808	 0.0307
1505.8445	 0.0360
1507.7082	 0.0377
1509.5718	 0.0330
1511.4355	 0.0308
1513.2992	 0.0311
1515.1628	 0.0326
1517.0265	 0.0343
1518.8902	 0.0344
1520.7538	 0.0348
1522.6175	 0.0357
1524.4812	 0.0338
1526.3448	 0.0336
1528.2085	 0.0328
1530.0722	 0.0329
1531.9359	 0.0340
1533.7995	 0.0346
1535.6632	 0.0345
1537.5269	 0.0365
1539.3905	 0.0416
1541.2542	 0.0406
1543.1179	 0.0377
1544.9815	 0.0363
1546.8452	 0.0353
1548.7089	 0.0357
1550.5725	 0.0374
1552.4362	 0.0371
1554.2999	 0.0390
1556.1635	 0.0427
1558.0272	 0.0456
1559.8909	 0.0425
1561.7546	 0.0374
1563.6182	 0.0375
1565.4819	 0.0388
1567.3456	 0.0401
1569.2092	 0.0408
1571.0729	 0.0397
1572.9366	 0.0404
1574.8002	 0.0437
1576.6639	 0.0436
1578.5276	 0.0417
1580.3912	 0.0419
1582.2549	 0.0427
1584.1186	 0.0430
1585.9822	 0.0443
1587.8459	 0.0452
1589.7096	 0.0463
1591.5733	 0.0471
1593.4369	 0.0481
1595.3006	 0.0481
1597.1643	 0.0480
1599.0279	 0.0487
1600.8916	 0.0500
1602.7553	 0.0508
1604.6189	 0.0515
1606.4826	 0.0522
1608.3463	 0.0532
1610.2099	 0.0539
1612.0736	 0.0547
1613.9373	 0.0575
1615.8010	 0.0598
1617.6646	 0.0573
1619.5283	 0.0568
1621.3920	 0.0602
1623.2556	 0.0618
1625.1193	 0.0609
1626.9830	 0.0612
1628.8466	 0.0612
1630.7103	 0.0614
1632.5740	 0.0644
1634.4376	 0.0675
1636.3013	 0.0650
1638.1650	 0.0611
1640.0286	 0.0606
1641.8923	 0.0618
1643.7560	 0.0642
1645.6197	 0.0670
1647.4833	 0.0655
1649.3470	 0.0650
1651.2107	 0.0700
1653.0743	 0.0702
1654.9380	 0.0619
1656.8017	 0.0621
1658.6653	 0.0647
1660.5290	 0.0671
1662.3927	 0.0683
1664.2563	 0.0681
1666.1200	 0.0710
1667.9837	 0.0753
1669.8474	 0.0751
1671.7110	 0.0754
1673.5747	 0.0790
1675.4384	 0.0799
1677.3020	 0.0801
1679.1657	 0.0848
1681.0294	 0.0918
1682.8930	 0.0971
1684.7567	 0.0937
1686.6204	 0.0908
1688.4840	 0.0947
1690.3477	 0.0973
1692.2114	 0.1018
1694.0750	 0.1082
1695.9387	 0.1099
1697.8024	 0.1126
1699.6661	 0.1133
1701.5297	 0.1069
1703.3934	 0.1094
1705.2571	 0.1124
1707.1207	 0.1093
1708.9844	 0.1084
1710.8481	 0.1095
1712.7117	 0.1112
1714.5754	 0.1130
1716.4391	 0.1113
1718.3027	 0.1026
1720.1664	 0.0969
1722.0301	 0.0964
1723.8937	 0.0954
1725.7574	 0.0937
1727.6211	 0.0937
1729.4848	 0.0938
1731.3484	 0.0952
1733.2121	 0.0936
1735.0758	 0.0847
1736.9394	 0.0796
1738.8031	 0.0781
1740.6668	 0.0722
1742.5304	 0.0664
1744.3941	 0.0621
1746.2578	 0.0578
1748.1214	 0.0546
1749.9851	 0.0498
1751.8488	 0.0439
1753.7125	 0.0394
1755.5761	 0.0373
1757.4398	 0.0359
1759.3035	 0.0336
1761.1671	 0.0326
1763.0308	 0.0309
1764.8945	 0.0291
1766.7581	 0.0292
1768.6218	 0.0301
1770.4855	 0.0294
1772.3491	 0.0290
1774.2128	 0.0272
1776.0765	 0.0254
1777.9401	 0.0244
1779.8038	 0.0236
1781.6675	 0.0229
1783.5312	 0.0216
1785.3948	 0.0211
1787.2585	 0.0199
1789.1222	 0.0195
1790.9858	 0.0198
1792.8495	 0.0199
1794.7132	 0.0173
1796.5768	 0.0161
1798.4405	 0.0157
1800.3042	 0.0154
1802.1678	 0.0148
1804.0315	 0.0135
1805.8952	 0.0125
1807.7589	 0.0121
1809.6225	 0.0117
1811.4862	 0.0116
1813.3499	 0.0110
1815.2135	 0.0104
1817.0772	 0.0103
1818.9409	 0.0099
1820.8045	 0.0094
1822.6682	 0.0094
1824.5319	 0.0109
1826.3955	 0.0112
1828.2592	 0.0104
1830.1229	 0.0114
1831.9865	 0.0102
1833.8502	 0.0094
1835.7139	 0.0092
1837.5776	 0.0093
1839.4412	 0.0092
1841.3049	 0.0093
1843.1686	 0.0106
1845.0322	 0.0116
1846.8959	 0.0100
1848.7596	 0.0092
1850.6232	 0.0086
1852.4869	 0.0085
1854.3506	 0.0088
1856.2142	 0.0092
1858.0779	 0.0092
1859.9416	 0.0092
1861.8052	 0.0094
1863.6689	 0.0094
1865.5326	 0.0097
1867.3963	 0.0109
1869.2599	 0.0115
1871.1236	 0.0100
1872.9873	 0.0088
1874.8509	 0.0086
1876.7146	 0.0089
1878.5783	 0.0090
1880.4419	 0.0091
1882.3056	 0.0097
1884.1693	 0.0098
1886.0329	 0.0096
1887.8966	 0.0100
1889.7603	 0.0108
1891.6240	 0.0104
1893.4876	 0.0099
1895.3513	 0.0095
1897.2150	 0.0095
1899.0786	 0.0100
1900.9423	 0.0099
1902.8060	 0.0097
1904.6696	 0.0095
1906.5333	 0.0095
1908.3970	 0.0102
1910.2606	 0.0107
1912.1243	 0.0100
1913.9880	 0.0095
1915.8516	 0.0098
1917.7153	 0.0110
1919.5790	 0.0114
1921.4427	 0.0110
1923.3063	 0.0108
1925.1700	 0.0100
1927.0337	 0.0103
1928.8973	 0.0109
1930.7610	 0.0106
1932.6247	 0.0100
1934.4883	 0.0100
1936.3520	 0.0101
1938.2157	 0.0105
1940.0793	 0.0108
1941.9430	 0.0112
1943.8067	 0.0105
1945.6704	 0.0103
1947.5340	 0.0108
1949.3977	 0.0110
1951.2614	 0.0111
1953.1250	 0.0109
1954.9887	 0.0107
1956.8524	 0.0110
1958.7160	 0.0110
1960.5797	 0.0102
1962.4434	 0.0098
1964.3070	 0.0102
1966.1707	 0.0104
1968.0344	 0.0106
1969.8980	 0.0107
1971.7617	 0.0103
1973.6254	 0.0103
1975.4891	 0.0109
1977.3527	 0.0101
1979.2164	 0.0102
1981.0801	 0.0105
1982.9437	 0.0108
1984.8074	 0.0112
1986.6711	 0.0107
1988.5347	 0.0110
1990.3984	 0.0111
1992.2621	 0.0114
1994.1257	 0.0117
1995.9894	 0.0108
1997.8531	 0.0103
1999.7167	 0.0102
2001.5804	 0.0101
2003.4441	 0.0096
2005.3078	 0.0094
2007.1714	 0.0106
2009.0351	 0.0113
2010.8988	 0.0101
2012.7624	 0.0090
2014.6261	 0.0097
2016.4898	 0.0113
2018.3534	 0.0114
2020.2171	 0.0113
2022.0808	 0.0112
2023.9444	 0.0112
2025.8081	 0.0118
2027.6718	 0.0117
2029.5355	 0.0112
2031.3991	 0.0112
2033.2628	 0.0111
2035.1265	 0.0114
2036.9901	 0.0119
2038.8538	 0.0114
2040.7175	 0.0104
2042.5811	 0.0106
2044.4448	 0.0104
2046.3085	 0.0104
2048.1721	 0.0111
2050.0358	 0.0116
2051.8995	 0.0121
2053.7631	 0.0117
2055.6268	 0.0109
2057.4905	 0.0108
2059.3542	 0.0106
2061.2178	 0.0107
2063.0815	 0.0112
2064.9452	 0.0114
2066.8088	 0.0113
2068.6725	 0.0110
2070.5362	 0.0106
2072.3998	 0.0105
2074.2635	 0.0109
2076.1272	 0.0115
2077.9908	 0.0112
2079.8545	 0.0109
2081.7182	 0.0112
2083.5819	 0.0111
2085.4455	 0.0107
2087.3092	 0.0107
2089.1729	 0.0109
2091.0365	 0.0107
2092.9002	 0.0107
2094.7639	 0.0108
2096.6275	 0.0110
2098.4912	 0.0112
2100.3549	 0.0113
2102.2185	 0.0109
2104.0822	 0.0105
2105.9459	 0.0104
2107.8095	 0.0111
2109.6732	 0.0113
2111.5369	 0.0109
2113.4006	 0.0112
2115.2642	 0.0116
2117.1279	 0.0114
2118.9916	 0.0114
2120.8552	 0.0120
2122.7189	 0.0119
2124.5826	 0.0111
2126.4462	 0.0113
2128.3099	 0.0114
2130.1736	 0.0109
2132.0372	 0.0107
2133.9009	 0.0110
2135.7646	 0.0115
2137.6282	 0.0116
2139.4919	 0.0115
2141.3556	 0.0117
2143.2193	 0.0117
2145.0829	 0.0114
2146.9466	 0.0122
2148.8103	 0.0126
2150.6739	 0.0117
2152.5376	 0.0117
2154.4013	 0.0123
2156.2649	 0.0120
2158.1286	 0.0110
2159.9923	 0.0110
2161.8559	 0.0122
2163.7196	 0.0113
2165.5833	 0.0102
2167.4470	 0.0114
2169.3106	 0.0124
2171.1743	 0.0127
2173.0380	 0.0125
2174.9016	 0.0113
2176.7653	 0.0107
2178.6290	 0.0118
2180.4926	 0.0127
2182.3563	 0.0125
2184.2200	 0.0120
2186.0836	 0.0114
2187.9473	 0.0110
2189.8110	 0.0111
2191.6746	 0.0119
2193.5383	 0.0124
2195.4020	 0.0126
2197.2657	 0.0130
2199.1293	 0.0133
2200.9930	 0.0127
2202.8567	 0.0123
2204.7203	 0.0126
2206.5840	 0.0130
2208.4477	 0.0131
2210.3113	 0.0126
2212.1750	 0.0124
2214.0387	 0.0125
2215.9023	 0.0123
2217.7660	 0.0126
2219.6297	 0.0129
2221.4934	 0.0126
2223.3570	 0.0127
2225.2207	 0.0128
2227.0844	 0.0125
2228.9480	 0.0127
2230.8117	 0.0131
2232.6754	 0.0130
2234.5390	 0.0125
2236.4027	 0.0127
2238.2664	 0.0129
2240.1300	 0.0129
2241.9937	 0.0134
2243.8574	 0.0138
2245.7210	 0.0135
2247.5847	 0.0133
2249.4484	 0.0135
2251.3121	 0.0133
2253.1757	 0.0133
2255.0394	 0.0138
2256.9031	 0.0140
2258.7667	 0.0138
2260.6304	 0.0137
2262.4941	 0.0133
2264.3577	 0.0131
2266.2214	 0.0134
2268.0851	 0.0134
2269.9487	 0.0138
2271.8124	 0.0145
2273.6761	 0.0149
2275.5397	 0.0146
2277.4034	 0.0140
2279.2671	 0.0139
2281.1308	 0.0139
2282.9944	 0.0138
2284.8581	 0.0141
2286.7218	 0.0145
2288.5854	 0.0145
2290.4491	 0.0140
2292.3128	 0.0139
2294.1764	 0.0142
2296.0401	 0.0144
2297.9038	 0.0143
2299.7674	 0.0143
2301.6311	 0.0145
2303.4948	 0.0145
2305.3585	 0.0145
2307.2221	 0.0148
2309.0858	 0.0150
2310.9495	 0.0149
2312.8131	 0.0146
2314.6768	 0.0147
2316.5405	 0.0148
2318.4041	 0.0148
2320.2678	 0.0150
2322.1315	 0.0151
2323.9951	 0.0148
2325.8588	 0.0143
2327.7225	 0.0143
2329.5861	 0.0146
2331.4498	 0.0146
2333.3135	 0.0145
2335.1772	 0.0144
2337.0408	 0.0142
2338.9045	 0.0143
2340.7682	 0.0142
2342.6318	 0.0140
2344.4955	 0.0148
2346.3592	 0.0145
2348.2228	 0.0151
2350.0865	 0.0156
2351.9502	 0.0146
2353.8138	 0.0152
2355.6775	 0.0162
2357.5412	 0.0151
2359.4049	 0.0138
2361.2685	 0.0133
2363.1322	 0.0132
2364.9959	 0.0136
2366.8595	 0.0147
2368.7232	 0.0152
2370.5869	 0.0150
2372.4505	 0.0151
2374.3142	 0.0161
2376.1779	 0.0166
2378.0415	 0.0164
2379.9052	 0.0161
2381.7689	 0.0161
2383.6325	 0.0163
2385.4962	 0.0164
2387.3599	 0.0165
2389.2236	 0.0166
2391.0872	 0.0166
2392.9509	 0.0166
2394.8146	 0.0164
2396.6782	 0.0162
2398.5419	 0.0166
2400.4056	 0.0170
2402.2692	 0.0168
2404.1329	 0.0166
2405.9966	 0.0167
2407.8602	 0.0167
2409.7239	 0.0165
2411.5876	 0.0165
2413.4512	 0.0167
2415.3149	 0.0169
2417.1786	 0.0168
2419.0423	 0.0167
2420.9059	 0.0171
2422.7696	 0.0175
2424.6333	 0.0175
2426.4969	 0.0173
2428.3606	 0.0174
2430.2243	 0.0176
2432.0879	 0.0176
2433.9516	 0.0177
2435.8153	 0.0179
2437.6789	 0.0179
2439.5426	 0.0178
2441.4063	 0.0182
2443.2700	 0.0185
2445.1336	 0.0182
2446.9973	 0.0179
2448.8610	 0.0181
2450.7246	 0.0181
2452.5883	 0.0181
2454.4520	 0.0184
2456.3156	 0.0185
2458.1793	 0.0186
2460.0430	 0.0186
2461.9066	 0.0187
2463.7703	 0.0188
2465.6340	 0.0189
2467.4976	 0.0191
2469.3613	 0.0191
2471.2250	 0.0190
2473.0887	 0.0189
2474.9523	 0.0190
2476.8160	 0.0190
2478.6797	 0.0188
2480.5433	 0.0190
2482.4070	 0.0193
2484.2707	 0.0196
2486.1343	 0.0197
2487.9980	 0.0197
2489.8617	 0.0194
2491.7253	 0.0194
2493.5890	 0.0198
2495.4527	 0.0196
2497.3164	 0.0190
2499.1800	 0.0189
2501.0437	 0.0193
2502.9074	 0.0194
2504.7710	 0.0196
2506.6347	 0.0203
2508.4984	 0.0204
2510.3620	 0.0200
2512.2257	 0.0198
2514.0894	 0.0200
2515.9530	 0.0203
2517.8167	 0.0208
2519.6804	 0.0207
2521.5440	 0.0205
2523.4077	 0.0205
2525.2714	 0.0200
2527.1351	 0.0197
2528.9987	 0.0203
2530.8624	 0.0210
2532.7261	 0.0213
2534.5897	 0.0213
2536.4534	 0.0211
2538.3171	 0.0210
2540.1807	 0.0212
2542.0444	 0.0213
2543.9081	 0.0213
2545.7717	 0.0213
2547.6354	 0.0213
2549.4991	 0.0213
2551.3627	 0.0212
2553.2264	 0.0211
2555.0901	 0.0213
2556.9538	 0.0215
2558.8174	 0.0216
2560.6811	 0.0216
2562.5448	 0.0216
2564.4084	 0.0215
2566.2721	 0.0214
2568.1358	 0.0214
2569.9994	 0.0215
2571.8631	 0.0215
2573.7268	 0.0216
2575.5904	 0.0216
2577.4541	 0.0216
2579.3178	 0.0217
2581.1815	 0.0219
2583.0451	 0.0219
2584.9088	 0.0218
2586.7725	 0.0215
2588.6361	 0.0215
2590.4998	 0.0220
2592.3635	 0.0223
2594.2271	 0.0219
2596.0908	 0.0217
2597.9545	 0.0220
2599.8181	 0.0219
2601.6818	 0.0218
2603.5455	 0.0223
2605.4091	 0.0226
2607.2728	 0.0226
2609.1365	 0.0226
2611.0002	 0.0225
2612.8638	 0.0226
2614.7275	 0.0226
2616.5912	 0.0225
2618.4548	 0.0222
2620.3185	 0.0220
